File: Felix Polymers Impedence/1M_NaCl_with_wire.csv
#Digilent WaveForms Impedance Analyzer
#Device Name: Discovery3
#Serial Number: SN:210415B99FD9
#Date Time:
#Digilent WaveForms Impedance Analyzer Trace#Trace: Trace
#Start: 1000 Hz
#Stop: 1e+06 Hz
#Steps: 151
#Resistor: 1000 Ω
#Average: 1
#ProbeResistance: 1.008e+06 Ω
#ProbeCapacitance: 4e-11 F
#Compensation:none
#Wavegen: Wavegen1
#Amplitude: 1 V
#Offset: 0 V
#Amplification: 1 X
#Settle: 0.01 s
#MinPeriods: 16
#Scale: Logarithmic
#Channel: Channel 1
#Range: 5.24066 V
#Offset: 0.000240203 V
#Attenuation: 1 X
#Channel: Channel 2
#Range: 5.25098 V
#Offset: 0.000230232 V
#Attenuation: 1 X

Frequency (Hz),Trace th (deg),Trace |Z| (Ohm)
1000,-49.8644,1010.69
1047.13,-49.1384,974.214
1096.48,-48.5197,945.208
1148.15,-47.9567,920.814
1202.26,-47.4657,900.352
1258.93,-47.0026,881.92
1318.26,-46.5231,863.53
1380.38,-45.9979,844.974
1445.44,-45.4771,827.641
1513.56,-44.965,811.716
1584.89,-44.4415,796.431
1659.59,-43.9156,781.397
1737.8,-43.3429,766.224
1819.7,-42.7682,751.425
1905.46,-42.1868,737.804
1995.26,-41.6103,725.005
2089.3,-41.0125,712.282
2187.76,-40.3884,699.368
2290.87,-39.7444,686.642
2398.83,-39.0887,674.554
2511.89,-38.4517,663.579
2630.27,-37.8025,653.297
2754.23,-37.1299,642.759
2884.03,-36.4359,632.287
3019.95,-35.7373,621.885
3162.28,-35.0394,612.594
3311.31,-34.3367,603.693
3467.37,-33.6362,595.433
3630.78,-32.9204,587.096
3801.89,-32.1827,578.603
3981.07,-31.4588,570.783
4168.69,-30.7358,563.513
4365.16,-30.0297,556.69
4570.88,-29.3095,550.183
4786.3,-28.5683,543.631
5011.87,-27.8552,537.229
5248.07,-27.1307,531.189
5495.41,-26.427,525.694
5754.4,-25.7381,520.581
6025.6,-25.0588,515.727
6309.57,-24.3613,510.658
6606.93,-23.6853,505.924
6918.31,-23.0253,501.238
7244.36,-22.3737,497.214
7585.78,-21.7288,493.515
7943.28,-21.1162,489.63
8317.64,-20.4933,485.94
8709.64,-19.8926,482.325
9120.11,-19.2982,478.843
9549.93,-18.7066,475.622
10000,-18.1505,472.798
10471.3,-17.6039,470.024
10964.8,-17.0698,467.426
11481.5,-16.5347,464.654
12022.6,-16.0378,462.106
12589.3,-15.5354,459.503
13182.6,-15.0426,457.177
13803.8,-14.5689,455.135
14454.4,-14.1179,453.075
15135.6,-13.6696,451.169
15848.9,-13.235,449.191
16595.9,-12.8092,447.142
17378,-12.3973,445.296
18197,-11.9869,443.549
19054.6,-11.6059,442.128
19952.6,-11.2438,440.562
20893,-10.8774,439.135
21877.6,-10.5062,437.368
22908.7,-10.1523,435.823
23988.3,-9.81192,434.405
25118.9,-9.46322,433.102
26302.7,-9.1602,432.083
27542.3,-8.84281,431.07
28840.3,-8.53478,429.7
30199.5,-8.22052,428.516
31622.8,-7.94388,427.461
33113.1,-7.66137,426.364
34673.7,-7.37785,425.477
36307.8,-7.12557,424.642
38018.9,-6.86257,423.711
39810.7,-6.62018,422.75
41686.9,-6.33753,421.838
43651.6,-6.11116,420.891
45708.8,-5.86918,419.993
47863,-5.64048,419.449
50118.7,-5.40007,418.702
52480.7,-5.1868,418.074
54954.1,-4.9804,417.392
57544,-4.7795,416.809
60256,-4.5566,416.12
63095.7,-4.36517,415.377
66069.3,-4.14421,414.674
69183.1,-3.95082,414.29
72443.6,-3.7523,413.595
75857.8,-3.5494,413.395
79432.8,-3.34805,412.818
83176.4,-3.17087,412.438
87096.4,-3.01094,411.938
91201.1,-2.81223,411.441
95499.3,-2.61662,411.019
100000,-2.44463,410.367
104713,-2.26545,410.023
109648,-2.11709,409.85
114815,-1.92864,409.586
120226,-1.76858,409.444
125893,-1.56848,409.068
131826,-1.41888,408.931
138038,-1.2198,408.32
144544,-1.04364,408.178
151356,-0.879226,407.769
158489,-0.698712,407.54
165959,-0.521121,407.351
173780,-0.351622,407.249
181970,-0.167839,407.582
190546,0.0107031,407.373
199526,0.193667,407.074
208930,0.382819,407.055
218776,0.589583,406.851
229087,0.773849,407.034
239883,0.962045,406.971
251189,1.13394,407.165
263027,1.34478,407.116
275423,1.55388,407.227
288403,1.77124,407.407
301995,1.97992,407.625
316228,2.18916,407.807
331131,2.39311,407.882
346737,2.64405,408.221
363078,2.87117,408.617
380189,3.09546,409.07
398107,3.34347,409.536
416869,3.55357,410.02
436516,3.81146,410.729
457088,4.04495,411.129
478630,4.29609,411.747
501187,4.59318,412.414
524807,4.83396,413.318
549541,5.11192,414.254
575440,5.40021,415.216
602560,5.66757,416.337
630957,5.9603,417.703
660693,6.24949,418.718
691831,6.56982,420.127
724436,6.84943,421.49
758578,7.14517,422.963
794328,7.44284,424.905
831764,7.74125,426.732
870964,8.04613,428.687
912011,8.34617,431.042
954993,8.65991,433.224
1000000,8.96537,435.636