File: Felix Polymers Impedence/1M_NaCl.csv
#Digilent WaveForms Impedance Analyzer
#Device Name: Discovery3
#Serial Number: SN:210415B99FD9
#Date Time:
#Digilent WaveForms Impedance Analyzer Trace#Trace: Trace
#Start: 1000 Hz
#Stop: 1e+06 Hz
#Steps: 151
#Resistor: 1000 Ω
#Average: 1
#ProbeResistance: 1.008e+06 Ω
#ProbeCapacitance: 4e-11 F
#Compensation:none
#Wavegen: Wavegen1
#Amplitude: 1 V
#Offset: 0 V
#Amplification: 1 X
#Settle: 0.01 s
#MinPeriods: 16
#Scale: Logarithmic
#Channel: Channel 1
#Range: 5.24066 V
#Offset: 0.000240203 V
#Attenuation: 1 X
#Channel: Channel 2
#Range: 5.25098 V
#Offset: 0.000230232 V
#Attenuation: 1 X

Frequency (Hz),Trace th (deg),Trace |Z| (Ohm)
1000,-47.8779,1031.85
1047.13,-46.8096,995.434
1096.48,-45.9783,968.513
1148.15,-45.2976,947.422
1202.26,-44.6474,927.938
1258.93,-44.0265,910.229
1318.26,-43.3985,893.293
1380.38,-42.7515,876.85
1445.44,-42.1352,861.643
1513.56,-41.5047,846.789
1584.89,-40.8472,832.349
1659.59,-40.1964,818.608
1737.8,-39.5522,805.608
1819.7,-38.8747,792.558
1905.46,-38.2004,780.358
1995.26,-37.5058,768.352
2089.3,-36.8133,757.114
2187.76,-36.1193,746.098
2290.87,-35.4096,735.515
2398.83,-34.6946,725.144
2511.89,-33.9648,715.243
2630.27,-33.2402,705.872
2754.23,-32.506,696.796
2884.03,-31.7637,687.839
3019.95,-31.0267,679.564
3162.28,-30.3055,671.52
3311.31,-29.57,663.954
3467.37,-28.8561,656.601
3630.78,-28.122,649.523
3801.89,-27.4098,642.786
3981.07,-26.682,636.267
4168.69,-25.9601,630.33
4365.16,-25.2633,624.455
4570.88,-24.5511,618.805
4786.3,-23.8598,613.384
5011.87,-23.1647,608.378
5248.07,-22.4971,603.612
5495.41,-21.8419,599.214
5754.4,-21.1903,594.784
6025.6,-20.5491,590.616
6309.57,-19.9179,586.602
6606.93,-19.2985,582.883
6918.31,-18.7057,579.476
7244.36,-18.1163,576.041
7585.78,-17.5631,572.706
7943.28,-16.98,569.555
8317.64,-16.4448,566.584
8709.64,-15.9117,563.87
9120.11,-15.3922,561.367
9549.93,-14.8937,558.853
10000,-14.4098,556.395
10471.3,-13.9303,554.078
10964.8,-13.4785,551.827
11481.5,-13.0247,549.786
12022.6,-12.5943,547.843
12589.3,-12.1647,546.007
13182.6,-11.7486,544.103
13803.8,-11.3667,542.268
14454.4,-10.9739,540.595
15135.6,-10.6011,539.005
15848.9,-10.2391,537.565
16595.9,-9.87804,536.09
17378,-9.55302,534.666
18197,-9.21336,533.28
19054.6,-8.89474,531.94
19952.6,-8.58429,530.703
20893,-8.28675,529.636
21877.6,-7.99161,528.521
22908.7,-7.7082,527.402
23988.3,-7.42181,526.23
25118.9,-7.16064,525.207
26302.7,-6.89688,524.274
27542.3,-6.64992,523.294
28840.3,-6.39622,522.487
30199.5,-6.17867,521.655
31622.8,-5.92626,520.83
33113.1,-5.71763,520.052
34673.7,-5.48447,519.271
36307.8,-5.29263,518.57
38018.9,-5.0804,517.948
39810.7,-4.87665,517.191
41686.9,-4.68689,516.578
43651.6,-4.49822,516.064
45708.8,-4.31701,515.509
47863,-4.1364,514.883
50118.7,-3.98177,514.369
52480.7,-3.7949,513.671
54954.1,-3.64615,513.236
57544,-3.473,512.847
60256,-3.3095,512.472
63095.7,-3.17211,512.099
66069.3,-3.03067,511.529
69183.1,-2.90281,511.138
72443.6,-2.71997,510.772
75857.8,-2.57768,510.284
79432.8,-2.46481,510.054
83176.4,-2.32555,509.687
87096.4,-2.18631,509.242
91201.1,-2.07017,509.074
95499.3,-1.9247,508.789
100000,-1.80369,508.736
104713,-1.68795,508.488
109648,-1.56379,508.116
114815,-1.46265,507.682
120226,-1.33181,507.667
125893,-1.19856,507.391
131826,-1.12051,507.458
138038,-0.981158,507.165
144544,-0.877605,507.159
151356,-0.784228,506.917
158489,-0.674026,506.653
165959,-0.529872,506.384
173780,-0.420944,506.492
181970,-0.314752,506.56
190546,-0.191149,506.235
199526,-0.0937937,506.313
208930,0.0255262,506.222
218776,0.130064,506.382
229087,0.268494,506.37
239883,0.368626,506.53
251189,0.497499,506.529
263027,0.61209,506.522
275423,0.737567,506.63
288403,0.877684,506.739
301995,0.96646,506.998
316228,1.09839,507.153
331131,1.24115,507.268
346737,1.3717,507.63
363078,1.50227,507.891
380189,1.65204,508.161
398107,1.74568,508.607
416869,1.90752,508.946
436516,2.03159,509.257
457088,2.18218,509.709
478630,2.34064,510.39
501187,2.49006,510.817
524807,2.64499,511.477
549541,2.79553,512.15
575440,2.95032,512.765
602560,3.09115,513.51
630957,3.258,514.315
660693,3.4151,515.245
691831,3.59817,516.363
724436,3.74567,517.426
758578,3.91466,518.598
794328,4.08986,519.751
831764,4.24852,521.22
870964,4.42471,522.475
912011,4.58712,524.071
954993,4.7348,525.577
1000000,4.92001,527.452