File: Felix Polymers Impedence/DIRTY_1M_NaCl.csv
#Digilent WaveForms Impedance Analyzer
#Device Name: Discovery3
#Serial Number: SN:210415B99FD9
#Date Time:
#Digilent WaveForms Impedance Analyzer Trace#Trace: Trace
#Start: 1000 Hz
#Stop: 1e+06 Hz
#Steps: 151
#Resistor: 100 Ω
#Average: 1
#ProbeResistance: 1.008e+06 Ω
#ProbeCapacitance: 4e-11 F
#Compensation:none
#Wavegen: Wavegen1
#Amplitude: 1 V
#Offset: 0 V
#Amplification: 1 X
#Settle: 0.01 s
#MinPeriods: 16
#Scale: Logarithmic
#Channel: Channel 1
#Range: 5.24066 V
#Offset: 0.000240203 V
#Attenuation: 1 X
#Channel: Channel 2
#Range: 5.25098 V
#Offset: 0.000230232 V
#Attenuation: 1 X

Frequency (Hz),Trace th (deg),Trace |Z| (Ohm)
1000,-63.2021,17.1431
1047.13,-62.5712,16.4829
1096.48,-61.9503,15.8743
1148.15,-61.3331,15.3427
1202.26,-60.7013,14.9005
1258.93,-60.0915,14.4142
1318.26,-59.4312,13.9213
1380.38,-58.7615,13.4777
1445.44,-58.0497,13.0869
1513.56,-57.3578,12.7193
1584.89,-56.6539,12.3063
1659.59,-55.8913,11.9165
1737.8,-55.1149,11.5761
1819.7,-54.347,11.2523
1905.46,-53.5074,10.928
1995.26,-52.6797,10.6106
2089.3,-51.8187,10.3002
2187.76,-50.9587,10.0202
2290.87,-50.0635,9.77044
2398.83,-49.1861,9.52198
2511.89,-48.2491,9.26269
2630.27,-47.3103,9.00391
2754.23,-46.3121,8.77822
2884.03,-45.3887,8.57354
3019.95,-44.4505,8.38148
3162.28,-43.4384,8.20276
3311.31,-42.4299,8.00635
3467.37,-41.3882,7.8172
3630.78,-40.4114,7.65532
3801.89,-39.3342,7.50872
3981.07,-38.336,7.37126
4168.69,-37.3333,7.23381
4365.16,-36.2624,7.09937
4570.88,-35.2599,6.96705
4786.3,-34.2371,6.86129
5011.87,-33.2485,6.76351
5248.07,-32.2428,6.66004
5495.41,-31.2223,6.5598
5754.4,-30.2676,6.46088
6025.6,-29.3041,6.38419
6309.57,-28.3539,6.31584
6606.93,-27.4911,6.24583
6918.31,-26.5622,6.18182
7244.36,-25.6126,6.10967
7585.78,-24.7669,6.04473
7943.28,-23.9663,5.99022
8317.64,-23.1569,5.94138
8709.64,-22.3489,5.90479
9120.11,-21.5154,5.85943
9549.93,-20.7946,5.81391
10000,-20.1056,5.76278
10471.3,-19.342,5.72795
10964.8,-18.6488,5.70152
11481.5,-18.0109,5.66679
12022.6,-17.3823,5.63594
12589.3,-16.7814,5.60056
13182.6,-16.1504,5.56904
13803.8,-15.6125,5.53576
14454.4,-14.9837,5.51167
15135.6,-14.4449,5.50008
15848.9,-13.8953,5.47776
16595.9,-13.4107,5.45121
17378,-12.9285,5.42755
18197,-12.5286,5.40673
19054.6,-11.9623,5.39484
19952.6,-11.5854,5.37789
20893,-11.155,5.36843
21877.6,-10.7451,5.3362
22908.7,-10.3594,5.31794
23988.3,-9.98435,5.30415
25118.9,-9.54116,5.29165
26302.7,-9.18593,5.27606
27542.3,-8.9276,5.26839
28840.3,-8.46552,5.25012
30199.5,-8.16597,5.24253
31622.8,-7.81116,5.2251
33113.1,-7.54434,5.22074
34673.7,-7.27665,5.20268
36307.8,-6.87977,5.19111
38018.9,-6.55272,5.18418
39810.7,-6.35128,5.17879
41686.9,-5.97831,5.16383
43651.6,-5.6791,5.15311
45708.8,-5.41797,5.15177
47863,-5.13744,5.13125
50118.7,-4.91034,5.12655
52480.7,-4.66004,5.11434
54954.1,-4.43701,5.12178
57544,-4.23991,5.10546
60256,-3.84947,5.10241
63095.7,-3.61985,5.08734
66069.3,-3.51697,5.0775
69183.1,-3.14085,5.07596
72443.6,-2.9198,5.06507
75857.8,-2.61897,5.06777
79432.8,-2.35733,5.06845
83176.4,-2.27487,5.05283
87096.4,-1.94706,5.05485
91201.1,-1.8514,5.04165
95499.3,-1.56391,5.0395
100000,-1.39779,5.03021
104713,-0.894744,5.02843
109648,-0.673025,5.02258
114815,-0.696781,5.02482
120226,-0.281033,5.0297
125893,-0.0374086,5.02595
131826,0.0284021,5.0202
138038,0.307798,5.01597
144544,0.752579,5.00497
151356,0.88168,5.00703
158489,1.05678,4.98257
165959,1.41873,5.00843
173780,1.79629,5.00312
181970,1.8878,5.00642
190546,2.29685,5.00493
199526,2.48966,5.00455
208930,2.79989,5.00539
218776,3.19102,5.00153
229087,3.42064,4.99825
239883,3.88024,5.00379
251189,4.07141,4.99273
263027,4.41687,4.99651
275423,4.81513,5.00206
288403,5.22541,5.01422
301995,5.48795,4.9937
316228,5.89441,5.00854
331131,6.29531,5.0238
346737,6.70356,5.02028
363078,7.08567,5.01261
380189,7.44442,5.02829
398107,7.87659,5.02621
416869,8.49446,5.04218
436516,8.9524,5.04016
457088,9.31105,5.05474
478630,10.0185,5.0591
501187,10.312,5.07417
524807,11.0135,5.07593
549541,11.4418,5.08747
575440,12.0129,5.09806
602560,12.7523,5.11736
630957,13.4065,5.12795
660693,13.9814,5.14165
691831,14.7422,5.17195
724436,15.3844,5.18025
758578,16.0373,5.20146
794328,16.9507,5.21814
831764,17.5854,5.25291
870964,18.4594,5.28038
912011,19.2316,5.30257
954993,20.1079,5.33817
1000000,20.8673,5.36326